#isoforms=['chrX:48673369-48673458:+@chrX:48673791-48673897:+.A.withRI','chrX:48673369-48673458:+@chrX:48673791-48673897:+.B.up_chrX:48673369-48673458:+@chrX:48673791-48673897:+.B.dn']	exon_lens=('chrX:48673369-48673458:+@chrX:48673791-48673897:+.A.withRI',529),('chrX:48673369-48673458:+@chrX:48673791-48673897:+.B.up',90),('chrX:48673369-48673458:+@chrX:48673791-48673897:+.B.dn',107)	iters=5000	burn_in=500	lag=10	percent_accept=76.77	proposal_type=drift	counts=(0,0):632,(0,1):325,(1,0):539,(1,1):266	assigned_counts=0:675,1:455	chrom=chrX	strand=+	mRNA_starts=48673369,48673369	mRNA_ends=48673897,48673897
sampled_psi	log_score
0.5446,0.4554	-1189.06
0.5435,0.4565	-1189.01
0.5242,0.4758	-1188.88
0.5567,0.4433	-1189.90
0.5458,0.4542	-1189.11
0.5361,0.4639	-1188.79
0.5454,0.4546	-1189.09
0.5286,0.4714	-1188.78
0.5244,0.4756	-1188.87
0.5466,0.4534	-1189.16
0.5395,0.4605	-1188.86
0.5436,0.4564	-1189.01
0.5453,0.4547	-1189.09
0.5282,0.4718	-1188.79
0.5585,0.4415	-1190.08
0.5320,0.4680	-1188.76
0.5376,0.4624	-1188.82
0.5152,0.4848	-1189.30
0.5229,0.4771	-1188.92
0.5381,0.4619	-1188.83
0.5432,0.4568	-1188.99
0.5230,0.4770	-1188.91
0.5345,0.4655	-1188.77
0.5241,0.4759	-1188.88
0.5489,0.4511	-1189.29
0.5476,0.4524	-1189.21
0.5318,0.4682	-1188.76
0.5486,0.4514	-1189.28
0.5303,0.4697	-1188.77
0.5297,0.4703	-1188.77
0.5483,0.4517	-1189.25
0.5368,0.4632	-1188.80
0.5390,0.4610	-1188.85
0.5606,0.4394	-1190.30
0.5500,0.4500	-1189.37
0.5223,0.4777	-1188.94
0.5328,0.4672	-1188.76
0.5072,0.4928	-1189.93
0.5379,0.4621	-1188.82
0.5270,0.4730	-1188.81
0.5388,0.4612	-1188.85
0.5317,0.4683	-1188.76
0.5479,0.4521	-1189.23
0.5329,0.4671	-1188.76
0.5364,0.4636	-1188.80
0.5704,0.4296	-1191.54
0.5551,0.4449	-1189.76
0.5435,0.4565	-1189.01
0.5530,0.4470	-1189.59
0.5362,0.4638	-1188.79
0.5423,0.4577	-1188.96
0.5366,0.4634	-1188.80
0.5072,0.4928	-1189.93
0.5193,0.4807	-1189.07
0.5255,0.4745	-1188.84
0.5159,0.4841	-1189.26
0.5362,0.4638	-1188.79
0.5415,0.4585	-1188.93
0.5236,0.4764	-1188.89
0.5286,0.4714	-1188.78
0.5438,0.4562	-1189.02
0.5616,0.4384	-1190.40
0.5260,0.4740	-1188.83
0.5252,0.4748	-1188.85
0.5305,0.4695	-1188.76
0.5174,0.4826	-1189.17
0.5223,0.4777	-1188.94
0.5802,0.4198	-1193.14
0.5100,0.4900	-1189.68
0.5438,0.4562	-1189.02
0.5384,0.4616	-1188.83
0.5440,0.4560	-1189.03
0.5470,0.4530	-1189.18
0.5173,0.4827	-1189.17
0.5432,0.4568	-1188.99
0.5483,0.4517	-1189.25
0.4948,0.5052	-1191.39
0.5780,0.4220	-1192.75
0.5491,0.4509	-1189.31
0.5168,0.4832	-1189.20
0.5382,0.4618	-1188.83
0.5375,0.4625	-1188.81
0.5226,0.4774	-1188.93
0.5644,0.4356	-1190.73
0.5221,0.4779	-1188.95
0.5448,0.4552	-1189.07
0.5071,0.4929	-1189.94
0.5278,0.4722	-1188.79
0.5355,0.4645	-1188.78
0.5391,0.4609	-1188.85
0.5602,0.4398	-1190.25
0.5228,0.4772	-1188.92
0.5222,0.4778	-1188.94
0.5515,0.4485	-1189.47
0.5342,0.4658	-1188.77
0.5283,0.4717	-1188.79
0.5589,0.4411	-1190.12
0.5483,0.4517	-1189.26
0.5386,0.4614	-1188.84
0.5054,0.4946	-1190.10
0.5330,0.4670	-1188.76
0.5342,0.4658	-1188.77
0.5478,0.4522	-1189.22
0.5148,0.4852	-1189.32
0.5279,0.4721	-1188.79
0.4956,0.5044	-1191.28
0.5379,0.4621	-1188.82
0.5604,0.4396	-1190.27
0.5135,0.4865	-1189.41
0.5118,0.4882	-1189.54
0.5380,0.4620	-1188.83
0.5613,0.4387	-1190.37
0.5398,0.4602	-1188.87
0.5542,0.4458	-1189.68
0.5263,0.4737	-1188.82
0.5345,0.4655	-1188.77
0.5134,0.4866	-1189.41
0.5364,0.4636	-1188.79
0.5288,0.4712	-1188.78
0.5208,0.4792	-1189.00
0.5344,0.4656	-1188.77
0.5370,0.4630	-1188.81
0.5446,0.4554	-1189.05
0.5112,0.4888	-1189.58
0.5440,0.4560	-1189.03
0.5459,0.4541	-1189.12
0.5149,0.4851	-1189.32
0.5387,0.4613	-1188.84
0.5449,0.4551	-1189.07
0.5239,0.4761	-1188.88
0.5244,0.4756	-1188.87
0.5166,0.4834	-1189.21
0.5390,0.4610	-1188.85
0.5141,0.4859	-1189.37
0.5488,0.4512	-1189.28
0.5062,0.4938	-1190.02
0.5029,0.4971	-1190.37
0.5261,0.4739	-1188.83
0.5260,0.4740	-1188.83
0.5353,0.4647	-1188.78
0.5440,0.4560	-1189.03
0.5373,0.4627	-1188.81
0.5437,0.4563	-1189.01
0.5336,0.4664	-1188.76
0.5219,0.4781	-1188.96
0.5043,0.4957	-1190.22
0.5419,0.4581	-1188.94
0.5213,0.4787	-1188.98
0.5326,0.4674	-1188.76
0.5383,0.4617	-1188.83
0.5258,0.4742	-1188.83
0.5437,0.4563	-1189.01
0.5329,0.4671	-1188.76
0.5342,0.4658	-1188.77
0.5306,0.4694	-1188.76
0.5401,0.4599	-1188.88
0.5144,0.4856	-1189.35
0.5246,0.4754	-1188.87
0.5406,0.4594	-1188.90
0.5383,0.4617	-1188.83
0.5460,0.4540	-1189.12
0.5015,0.4985	-1190.52
0.5026,0.4974	-1190.40
0.5099,0.4901	-1189.69
0.5119,0.4881	-1189.53
0.5428,0.4572	-1188.98
0.5453,0.4547	-1189.09
0.5240,0.4760	-1188.88
0.5497,0.4503	-1189.35
0.5540,0.4460	-1189.67
0.5145,0.4855	-1189.34
0.5357,0.4643	-1188.78
0.5595,0.4405	-1190.18
0.5021,0.4979	-1190.45
0.5564,0.4436	-1189.87
0.5353,0.4647	-1188.78
0.5221,0.4779	-1188.95
0.5404,0.4596	-1188.89
0.5248,0.4752	-1188.86
0.5489,0.4511	-1189.29
0.5350,0.4650	-1188.78
0.5439,0.4561	-1189.02
0.5460,0.4540	-1189.12
0.5170,0.4830	-1189.19
0.5040,0.4960	-1190.25
0.5336,0.4664	-1188.76
0.5408,0.4592	-1188.90
0.5085,0.4915	-1189.81
0.5551,0.4449	-1189.76
0.5066,0.4934	-1189.99
0.5221,0.4779	-1188.95
0.5414,0.4586	-1188.92
0.5808,0.4192	-1193.25
0.5551,0.4449	-1189.76
0.5447,0.4553	-1189.06
0.5195,0.4805	-1189.06
0.5398,0.4602	-1188.87
0.5418,0.4582	-1188.94
0.5330,0.4670	-1188.76
0.5275,0.4725	-1188.80
0.5293,0.4707	-1188.77
0.5303,0.4697	-1188.77
0.5280,0.4720	-1188.79
0.5428,0.4572	-1188.97
0.5238,0.4762	-1188.89
0.5416,0.4584	-1188.93
0.5290,0.4710	-1188.78
0.5264,0.4736	-1188.82
0.5477,0.4523	-1189.22
0.5345,0.4655	-1188.77
0.5293,0.4707	-1188.77
0.5555,0.4445	-1189.80
0.5191,0.4809	-1189.08
0.5082,0.4918	-1189.83
0.5312,0.4688	-1188.76
0.5342,0.4658	-1188.77
0.5223,0.4777	-1188.94
0.5321,0.4679	-1188.76
0.5285,0.4715	-1188.78
0.5183,0.4817	-1189.12
0.5221,0.4779	-1188.95
0.5157,0.4843	-1189.26
0.5606,0.4394	-1190.29
0.5317,0.4683	-1188.76
0.5398,0.4602	-1188.87
0.5226,0.4774	-1188.93
0.5457,0.4543	-1189.11
0.5289,0.4711	-1188.78
0.5266,0.4734	-1188.82
0.5579,0.4421	-1190.02
0.5258,0.4742	-1188.83
0.5040,0.4960	-1190.24
0.5473,0.4527	-1189.19
0.5193,0.4807	-1189.07
0.5408,0.4592	-1188.90
0.5179,0.4821	-1189.14
0.5213,0.4787	-1188.98
0.5353,0.4647	-1188.78
0.5422,0.4578	-1188.95
0.5450,0.4550	-1189.08
0.5723,0.4277	-1191.82
0.5240,0.4760	-1188.88
0.5034,0.4966	-1190.32
0.5322,0.4678	-1188.76
0.5171,0.4829	-1189.18
0.5546,0.4454	-1189.71
0.5348,0.4652	-1188.77
0.5267,0.4733	-1188.81
0.5531,0.4469	-1189.59
0.5388,0.4612	-1188.85
0.5430,0.4570	-1188.98
0.5306,0.4694	-1188.76
0.5462,0.4538	-1189.13
0.5255,0.4745	-1188.84
0.5216,0.4784	-1188.97
0.5234,0.4766	-1188.90
0.5352,0.4648	-1188.78
0.5345,0.4655	-1188.77
0.5496,0.4504	-1189.34
0.5582,0.4418	-1190.05
0.5071,0.4929	-1189.94
0.5309,0.4691	-1188.76
0.5265,0.4735	-1188.82
0.5504,0.4496	-1189.39
0.5062,0.4938	-1190.03
0.5366,0.4634	-1188.80
0.5314,0.4686	-1188.76
0.5391,0.4609	-1188.85
0.5202,0.4798	-1189.02
0.5126,0.4874	-1189.48
0.5274,0.4726	-1188.80
0.5244,0.4756	-1188.87
0.5215,0.4785	-1188.97
0.5266,0.4734	-1188.82
0.5346,0.4654	-1188.77
0.5177,0.4823	-1189.15
0.5341,0.4659	-1188.77
0.5334,0.4666	-1188.76
0.5294,0.4706	-1188.77
0.5509,0.4491	-1189.43
0.5065,0.4935	-1189.99
0.5339,0.4661	-1188.77
0.5112,0.4888	-1189.58
0.5455,0.4545	-1189.10
0.5429,0.4571	-1188.98
0.5154,0.4846	-1189.29
0.5637,0.4363	-1190.65
0.5149,0.4851	-1189.31
0.5207,0.4793	-1189.00
0.5709,0.4291	-1191.60
0.5255,0.4745	-1188.84
0.5456,0.4544	-1189.10
0.5319,0.4681	-1188.76
0.5183,0.4817	-1189.12
0.5307,0.4693	-1188.76
0.5396,0.4604	-1188.87
0.5121,0.4879	-1189.52
0.5598,0.4402	-1190.21
0.5101,0.4899	-1189.67
0.5263,0.4737	-1188.82
0.5096,0.4904	-1189.71
0.5499,0.4501	-1189.36
0.5526,0.4474	-1189.55
0.5359,0.4641	-1188.79
0.5335,0.4665	-1188.76
0.5180,0.4820	-1189.13
0.5014,0.4986	-1190.53
0.5508,0.4492	-1189.42
0.5273,0.4727	-1188.80
0.5219,0.4781	-1188.96
0.5484,0.4516	-1189.26
0.5233,0.4767	-1188.91
0.5143,0.4857	-1189.36
0.5473,0.4527	-1189.20
0.5521,0.4479	-1189.51
0.5536,0.4464	-1189.64
0.5208,0.4792	-1189.00
0.5310,0.4690	-1188.76
0.5143,0.4857	-1189.36
0.5205,0.4795	-1189.01
0.5110,0.4890	-1189.60
0.5209,0.4791	-1189.00
0.5220,0.4780	-1188.95
0.5129,0.4871	-1189.45
0.5353,0.4647	-1188.78
0.5321,0.4679	-1188.76
0.5542,0.4458	-1189.69
0.5576,0.4424	-1189.99
0.5384,0.4616	-1188.83
0.5318,0.4682	-1188.76
0.5328,0.4672	-1188.76
0.5212,0.4788	-1188.98
0.5541,0.4459	-1189.68
0.5145,0.4855	-1189.35
0.5446,0.4554	-1189.05
0.5415,0.4585	-1188.93
0.5113,0.4887	-1189.57
0.5467,0.4533	-1189.16
0.5224,0.4776	-1188.94
0.5049,0.4951	-1190.15
0.5478,0.4522	-1189.23
0.5345,0.4655	-1188.77
0.5467,0.4533	-1189.16
0.5488,0.4512	-1189.29
0.5650,0.4350	-1190.80
0.5222,0.4778	-1188.94
0.5355,0.4645	-1188.78
0.5542,0.4458	-1189.69
0.5444,0.4556	-1189.05
0.5452,0.4548	-1189.08
0.5213,0.4787	-1188.98
0.5146,0.4854	-1189.34
0.5190,0.4810	-1189.08
0.5574,0.4426	-1189.97
0.5447,0.4553	-1189.06
0.5576,0.4424	-1189.99
0.5084,0.4916	-1189.82
0.5234,0.4766	-1188.90
0.5287,0.4713	-1188.78
0.5097,0.4903	-1189.71
0.5526,0.4474	-1189.55
0.5568,0.4432	-1189.91
0.5111,0.4889	-1189.59
0.5187,0.4813	-1189.10
0.5279,0.4721	-1188.79
0.5476,0.4524	-1189.21
0.5464,0.4536	-1189.15
0.5154,0.4846	-1189.29
0.4972,0.5028	-1191.05
0.5132,0.4868	-1189.43
0.5153,0.4847	-1189.29
0.5268,0.4732	-1188.81
0.5286,0.4714	-1188.78
0.5265,0.4735	-1188.82
0.5264,0.4736	-1188.82
0.5237,0.4763	-1188.89
0.5270,0.4730	-1188.81
0.5427,0.4573	-1188.97
0.5199,0.4801	-1189.04
0.5437,0.4563	-1189.01
0.5355,0.4645	-1188.78
0.5169,0.4831	-1189.20
0.5257,0.4743	-1188.84
0.5445,0.4555	-1189.05
0.5567,0.4433	-1189.90
0.5333,0.4667	-1188.76
0.5312,0.4688	-1188.76
0.5230,0.4770	-1188.92
0.4910,0.5090	-1191.96
0.5427,0.4573	-1188.97
0.5658,0.4342	-1190.91
0.5624,0.4376	-1190.49
0.5325,0.4675	-1188.76
0.5199,0.4801	-1189.04
0.4873,0.5127	-1192.55
0.5175,0.4825	-1189.16
0.5613,0.4387	-1190.37
0.5487,0.4513	-1189.28
0.5288,0.4712	-1188.78
0.5381,0.4619	-1188.83
0.5142,0.4858	-1189.36
0.5199,0.4801	-1189.04
0.5349,0.4651	-1188.77
0.5415,0.4585	-1188.93
0.5343,0.4657	-1188.77
0.5611,0.4389	-1190.35
0.5399,0.4601	-1188.88
0.5316,0.4684	-1188.76
0.5300,0.4700	-1188.77
0.5178,0.4822	-1189.14
0.5358,0.4642	-1188.79
0.5362,0.4638	-1188.79
0.5216,0.4784	-1188.97
0.5383,0.4617	-1188.83
0.5288,0.4712	-1188.78
0.5180,0.4820	-1189.14
0.5469,0.4531	-1189.17
0.5450,0.4550	-1189.07
0.5322,0.4678	-1188.76
0.5175,0.4825	-1189.16
0.5269,0.4731	-1188.81
0.5318,0.4682	-1188.76
0.5342,0.4658	-1188.77
0.5366,0.4634	-1188.80
0.5347,0.4653	-1188.77
0.5243,0.4757	-1188.87
0.5225,0.4775	-1188.93
0.5132,0.4868	-1189.43
0.5314,0.4686	-1188.76
0.5308,0.4692	-1188.76
0.5560,0.4440	-1189.84
0.5212,0.4788	-1188.98
0.5487,0.4513	-1189.28
0.5589,0.4411	-1190.12
0.5372,0.4628	-1188.81
0.5554,0.4446	-1189.79
0.5318,0.4682	-1188.76
0.5566,0.4434	-1189.90
0.5243,0.4757	-1188.87
0.5331,0.4669	-1188.76
0.5601,0.4399	-1190.24
0.5508,0.4492	-1189.42
0.5461,0.4539	-1189.13
0.5664,0.4336	-1190.98
0.5055,0.4945	-1190.09
0.5637,0.4363	-1190.64
0.5351,0.4649	-1188.78
0.5449,0.4551	-1189.07
0.5403,0.4597	-1188.89
0.5256,0.4744	-1188.84
0.5321,0.4679	-1188.76
0.5303,0.4697	-1188.77
0.5618,0.4382	-1190.43
0.5596,0.4404	-1190.19
0.5240,0.4760	-1188.88
0.5580,0.4420	-1190.02
0.5424,0.4576	-1188.96
0.5260,0.4740	-1188.83
0.5260,0.4740	-1188.83
0.5297,0.4703	-1188.77
0.5402,0.4598	-1188.88
0.5218,0.4782	-1188.96
0.5294,0.4706	-1188.77
0.5295,0.4705	-1188.77
0.5544,0.4456	-1189.69
0.5328,0.4672	-1188.76
0.5425,0.4575	-1188.96
0.5371,0.4629	-1188.81
0.5348,0.4652	-1188.77
0.5428,0.4572	-1188.97
0.5194,0.4806	-1189.06
0.5494,0.4506	-1189.33
0.5462,0.4538	-1189.13
0.5434,0.4566	-1189.00
0.5094,0.4906	-1189.73
0.5209,0.4791	-1188.99
0.5478,0.4522	-1189.22
0.5286,0.4714	-1188.78
0.5318,0.4682	-1188.76
0.5286,0.4714	-1188.78
0.5326,0.4674	-1188.76
0.5415,0.4585	-1188.92
0.5423,0.4577	-1188.96
0.5232,0.4768	-1188.91
0.5393,0.4607	-1188.86
0.5543,0.4457	-1189.69
0.5283,0.4717	-1188.79
0.5326,0.4674	-1188.76
0.5355,0.4645	-1188.78
0.5393,0.4607	-1188.86
0.5366,0.4634	-1188.80
0.5175,0.4825	-1189.16
0.5248,0.4752	-1188.86
0.5509,0.4491	-1189.43
0.5376,0.4624	-1188.82
0.5153,0.4847	-1189.29
0.5419,0.4581	-1188.94
0.5026,0.4974	-1190.40
0.5528,0.4472	-1189.57
0.5300,0.4700	-1188.77
0.5486,0.4514	-1189.28
0.5384,0.4616	-1188.83
0.5330,0.4670	-1188.76
0.5326,0.4674	-1188.76
0.5246,0.4754	-1188.87
0.5106,0.4894	-1189.63
0.5453,0.4547	-1189.09
0.5345,0.4655	-1188.77
0.5226,0.4774	-1188.93
0.5432,0.4568	-1188.99
0.5271,0.4729	-1188.81
0.5189,0.4811	-1189.08
0.5178,0.4822	-1189.14
0.5120,0.4880	-1189.52
0.5255,0.4745	-1188.84
0.5273,0.4727	-1188.80
0.5141,0.4859	-1189.37
0.5161,0.4839	-1189.24
0.5118,0.4882	-1189.54
0.5361,0.4639	-1188.79
0.5333,0.4667	-1188.76
0.5168,0.4832	-1189.20
0.5212,0.4788	-1188.98
0.5094,0.4906	-1189.73
0.5337,0.4663	-1188.76
0.5384,0.4616	-1188.83
0.5276,0.4724	-1188.80
0.4815,0.5185	-1193.61
0.5474,0.4526	-1189.20
0.5263,0.4737	-1188.82
0.5406,0.4594	-1188.90
0.5293,0.4707	-1188.77
0.5223,0.4777	-1188.94
0.5018,0.4982	-1190.49
0.5316,0.4684	-1188.76
0.5269,0.4731	-1188.81
0.4930,0.5070	-1191.64
0.5336,0.4664	-1188.76
0.5113,0.4887	-1189.57
0.5219,0.4781	-1188.95
0.5302,0.4698	-1188.77
0.5240,0.4760	-1188.88
0.5305,0.4695	-1188.76
0.5308,0.4692	-1188.76
0.5552,0.4448	-1189.77
0.5490,0.4510	-1189.30
0.5328,0.4672	-1188.76
0.5324,0.4676	-1188.76
0.5476,0.4524	-1189.21
0.5409,0.4591	-1188.91
0.5559,0.4441	-1189.83
0.5365,0.4635	-1188.80
0.5440,0.4560	-1189.02
0.5285,0.4715	-1188.78
0.5428,0.4572	-1188.98
0.5685,0.4315	-1191.27
0.5597,0.4403	-1190.20
0.5352,0.4648	-1188.78
0.5440,0.4560	-1189.03
0.5525,0.4475	-1189.55
0.5092,0.4908	-1189.75
0.5307,0.4693	-1188.76
0.5271,0.4729	-1188.81
0.5263,0.4737	-1188.82
0.5465,0.4535	-1189.15
0.4943,0.5057	-1191.45
0.5292,0.4708	-1188.78
0.5524,0.4476	-1189.54
0.5430,0.4570	-1188.98
0.5595,0.4405	-1190.18
0.5262,0.4738	-1188.82
0.5452,0.4548	-1189.08
0.5498,0.4502	-1189.35
0.5250,0.4750	-1188.85
0.5514,0.4486	-1189.46
0.5809,0.4191	-1193.27
0.5178,0.4822	-1189.14
0.5396,0.4604	-1188.87
0.5373,0.4627	-1188.81
0.5283,0.4717	-1188.79
0.5480,0.4520	-1189.24
0.5138,0.4862	-1189.39
0.5366,0.4634	-1188.80
0.5288,0.4712	-1188.78
0.5337,0.4663	-1188.76
0.5237,0.4763	-1188.89
0.5179,0.4821	-1189.14
0.5234,0.4766	-1188.90
0.5534,0.4466	-1189.61
0.5372,0.4628	-1188.81
0.5380,0.4620	-1188.83
0.5296,0.4704	-1188.77
0.4836,0.5164	-1193.21
0.5462,0.4538	-1189.13
0.5472,0.4528	-1189.19
0.5379,0.4621	-1188.82
0.5532,0.4468	-1189.60
0.5302,0.4698	-1188.77
0.5288,0.4712	-1188.78
0.5486,0.4514	-1189.27
0.5136,0.4864	-1189.40
0.5256,0.4744	-1188.84
0.5278,0.4722	-1188.79
0.5290,0.4710	-1188.78
0.5222,0.4778	-1188.95
0.5363,0.4637	-1188.79
0.5167,0.4833	-1189.20
0.5255,0.4745	-1188.84
0.5516,0.4484	-1189.48
0.5391,0.4609	-1188.85
0.5276,0.4724	-1188.80
0.5251,0.4749	-1188.85
0.5172,0.4828	-1189.18
0.5412,0.4588	-1188.92
0.5432,0.4568	-1188.99
0.5353,0.4647	-1188.78
0.5468,0.4532	-1189.17
0.5419,0.4581	-1188.94
0.5100,0.4900	-1189.68
0.5545,0.4455	-1189.71
0.5407,0.4593	-1188.90
0.5257,0.4743	-1188.84
0.5423,0.4577	-1188.96
0.5530,0.4470	-1189.59
0.5244,0.4756	-1188.87
0.5476,0.4524	-1189.21
0.5353,0.4647	-1188.78
0.5149,0.4851	-1189.32
0.5617,0.4383	-1190.42
0.5419,0.4581	-1188.94
0.5425,0.4575	-1188.96
0.5110,0.4890	-1189.60
0.5178,0.4822	-1189.15
0.5110,0.4890	-1189.60
0.5437,0.4563	-1189.02
0.5723,0.4277	-1191.82
0.5583,0.4417	-1190.06
0.5136,0.4864	-1189.40
0.5226,0.4774	-1188.93
0.5396,0.4604	-1188.87
0.5461,0.4539	-1189.13
0.5307,0.4693	-1188.76
0.5382,0.4618	-1188.83
0.5364,0.4636	-1188.79
0.5286,0.4714	-1188.78
0.5710,0.4290	-1191.62
0.5338,0.4662	-1188.76
0.5441,0.4559	-1189.03
0.5254,0.4746	-1188.84
0.5540,0.4460	-1189.67
0.5241,0.4759	-1188.88
0.5209,0.4791	-1188.99
0.5440,0.4560	-1189.02
0.5415,0.4585	-1188.93
0.5439,0.4561	-1189.02
0.5332,0.4668	-1188.76
0.5483,0.4517	-1189.26
0.5422,0.4578	-1188.95
0.4885,0.5115	-1192.35
0.5440,0.4560	-1189.03
0.5151,0.4849	-1189.30
0.5402,0.4598	-1188.88
0.5115,0.4885	-1189.56
0.5214,0.4786	-1188.97
0.5304,0.4696	-1188.76
0.5156,0.4844	-1189.27
0.5247,0.4753	-1188.86
0.5154,0.4846	-1189.29
0.5215,0.4785	-1188.97
0.5251,0.4749	-1188.85
0.5557,0.4443	-1189.82
0.5110,0.4890	-1189.60
0.4979,0.5021	-1190.96
0.5294,0.4706	-1188.77
0.5254,0.4746	-1188.84
0.5543,0.4457	-1189.69
0.5432,0.4568	-1188.99
0.5318,0.4682	-1188.76
0.5426,0.4574	-1188.97
0.5234,0.4766	-1188.90
0.5588,0.4412	-1190.11
0.5164,0.4836	-1189.23
0.5281,0.4719	-1188.79
0.5427,0.4573	-1188.97
0.5002,0.4998	-1190.68
0.5287,0.4713	-1188.78
0.5373,0.4627	-1188.81
0.5010,0.4990	-1190.58
0.5623,0.4377	-1190.48
0.5371,0.4629	-1188.81
0.5266,0.4734	-1188.82
0.5687,0.4313	-1191.30
0.5265,0.4735	-1188.82
0.5006,0.4994	-1190.63
0.5345,0.4655	-1188.77
0.5487,0.4513	-1189.28
0.5483,0.4517	-1189.26
0.5506,0.4494	-1189.41
0.5368,0.4632	-1188.80
0.5172,0.4828	-1189.18
0.5198,0.4802	-1189.04
0.5223,0.4777	-1188.94
0.5301,0.4699	-1188.77
0.5294,0.4706	-1188.77
0.5257,0.4743	-1188.84
0.5325,0.4675	-1188.76
0.5307,0.4693	-1188.76
0.5340,0.4660	-1188.77
0.5264,0.4736	-1188.82
0.5286,0.4714	-1188.78
0.5079,0.4921	-1189.86
0.5457,0.4543	-1189.11
0.5447,0.4553	-1189.06
0.5446,0.4554	-1189.06
0.5265,0.4735	-1188.82
0.5175,0.4825	-1189.16
0.5292,0.4708	-1188.77
0.5053,0.4947	-1190.11
0.5364,0.4636	-1188.79
0.5458,0.4542	-1189.11
0.5144,0.4856	-1189.35
0.5219,0.4781	-1188.95
0.5387,0.4613	-1188.84
0.5231,0.4769	-1188.91
0.5308,0.4692	-1188.76
0.5293,0.4707	-1188.77
0.5116,0.4884	-1189.55
0.5136,0.4864	-1189.41
0.5117,0.4883	-1189.54
0.5203,0.4797	-1189.02
0.5280,0.4720	-1188.79
0.5369,0.4631	-1188.80
0.5388,0.4612	-1188.84
0.5187,0.4813	-1189.10
0.5418,0.4582	-1188.94
0.5083,0.4917	-1189.83
0.5277,0.4723	-1188.80
0.5131,0.4869	-1189.44
0.5567,0.4433	-1189.91
0.5244,0.4756	-1188.87
0.5513,0.4487	-1189.46
0.5081,0.4919	-1189.85
0.4991,0.5009	-1190.82
0.5390,0.4610	-1188.85
0.5236,0.4764	-1188.90
0.5404,0.4596	-1188.89
0.5356,0.4644	-1188.78
0.5133,0.4867	-1189.42
0.5242,0.4758	-1188.88
0.5231,0.4769	-1188.91
0.5123,0.4877	-1189.50
0.5562,0.4438	-1189.85
0.5320,0.4680	-1188.76
0.5621,0.4379	-1190.46
0.5541,0.4459	-1189.67
0.5414,0.4586	-1188.92
0.5263,0.4737	-1188.82
0.5534,0.4466	-1189.61
0.5404,0.4596	-1188.89
0.5471,0.4529	-1189.18
0.5170,0.4830	-1189.19
0.5155,0.4845	-1189.28
0.5294,0.4706	-1188.77
0.5540,0.4460	-1189.66
0.5351,0.4649	-1188.78
0.5257,0.4743	-1188.84
0.5151,0.4849	-1189.30
0.5324,0.4676	-1188.76
0.5218,0.4782	-1188.96
0.5263,0.4737	-1188.82
0.5240,0.4760	-1188.88
0.5567,0.4433	-1189.90
0.4952,0.5048	-1191.33
0.5311,0.4689	-1188.76
0.5273,0.4727	-1188.80
0.5335,0.4665	-1188.76
0.5444,0.4556	-1189.05
0.5317,0.4683	-1188.76
0.5213,0.4787	-1188.98
0.5569,0.4431	-1189.92
0.5454,0.4546	-1189.10
0.5484,0.4516	-1189.26
0.5098,0.4902	-1189.70
0.5494,0.4506	-1189.32
0.5496,0.4504	-1189.33
0.5384,0.4616	-1188.83
0.5389,0.4611	-1188.85
0.5417,0.4583	-1188.93
0.5216,0.4784	-1188.97
0.5411,0.4589	-1188.91
0.5438,0.4562	-1189.02
0.5507,0.4493	-1189.41
0.5369,0.4631	-1188.80
0.5358,0.4642	-1188.79
0.5331,0.4669	-1188.76
0.5522,0.4478	-1189.52
0.5252,0.4748	-1188.85
0.5508,0.4492	-1189.42
0.5203,0.4797	-1189.02
0.5443,0.4557	-1189.04
0.5494,0.4506	-1189.32
0.5558,0.4442	-1189.82
0.5452,0.4548	-1189.08
0.5389,0.4611	-1188.85
0.5605,0.4395	-1190.28
0.5445,0.4555	-1189.05
0.5282,0.4718	-1188.79
0.5052,0.4948	-1190.12
0.5256,0.4744	-1188.84
0.5347,0.4653	-1188.77
0.5323,0.4677	-1188.76
0.5189,0.4811	-1189.09
0.5348,0.4652	-1188.77
0.5215,0.4785	-1188.97
0.5298,0.4702	-1188.77
0.5667,0.4333	-1191.02
0.5271,0.4729	-1188.81
0.5365,0.4635	-1188.80
0.5453,0.4547	-1189.09
0.5251,0.4749	-1188.85
0.5311,0.4689	-1188.76
0.5406,0.4594	-1188.90
0.5585,0.4415	-1190.07
0.5176,0.4824	-1189.16
0.5342,0.4658	-1188.77
0.5697,0.4303	-1191.43
0.5300,0.4700	-1188.77
0.5232,0.4768	-1188.91
0.5491,0.4509	-1189.30
0.5422,0.4578	-1188.95
0.5151,0.4849	-1189.30
0.5410,0.4590	-1188.91
0.5381,0.4619	-1188.83
0.5290,0.4710	-1188.78
0.5235,0.4765	-1188.90
0.5114,0.4886	-1189.57
0.5390,0.4610	-1188.85
0.5229,0.4771	-1188.92
0.5174,0.4826	-1189.17
0.5169,0.4831	-1189.19
0.5215,0.4785	-1188.97
0.5301,0.4699	-1188.77
